File: aloh3_XRD_list.txt
# [0.0, 772.0, 1544.0, 2316.0, 3090.0, 3861.0, 4634.0, 5406.0, 6179.0, 6952.0, 7724.0, 8496.0, 9267.0, 10040.0, 10814.0, 11585.0, 12357.0, 13129.0, 13902.0, 14675.0, 15447.0, 16219.0, 16992.0, 17765.0, 18538.0, 19310.0, 20082.0, 20854.0, 21626.0, 22400.0]
1.5 2.1446 2.4014 2.40336 2.33726 2.42478 2.36794 2.5042 2.48252 2.51211 2.41837 2.43123 2.31418 2.51758 2.29697 2.45943 2.504 2.42907 2.5444 2.50045 2.46515 2.51284 2.42941 2.49412 2.48652 2.57479 2.50893 2.61731 2.60527 2.41442 2.57121
2.8 6.94562 6.30724 6.53534 6.73567 6.55371 6.58492 6.72551 6.38664 6.48399 6.37326 6.4088 6.1499 6.46552 6.24965 6.5419 6.32982 6.47299 6.55301 6.37498 6.54272 6.38447 6.16524 6.35406 6.42712 6.5654 6.50217 6.57512 6.69765 6.31232 6.30606
4.1 9.0167 8.39952 8.46754 8.49336 8.46519 8.76402 8.68215 8.62759 8.48859 8.38651 8.38795 8.46567 8.46273 8.3965 8.32417 8.57198 8.57523 8.53601 8.58941 8.79686 8.46049 8.54048 8.35123 8.50121 8.57176 8.51168 8.52959 8.80677 8.37698 8.4501
5.4 6.11381 5.55211 5.64087 5.75638 5.71155 5.76701 5.83682 5.7819 5.69024 5.4951 5.66689 5.62404 5.63915 5.7048 5.73421 5.67534 5.79862 5.74972 5.72675 5.83916 5.62343 5.67627 5.61886 5.81114 5.76711 5.57784 5.81417 5.83896 5.6368 5.81001
6.7 3.60435 3.33414 3.30428 3.42103 3.40896 3.47266 3.44572 3.30807 3.4001 3.32105 3.28926 3.33304 3.29834 3.25561 3.35769 3.39607 3.37526 3.39272 3.2268 3.45556 3.2705 3.37436 3.29486 3.35279 3.4334 3.35266 3.55752 3.5294 3.34671 3.35087
8 3.52156 3.31711 3.39702 3.36725 3.36624 3.39308 3.33661 3.32951 3.36317 3.27742 3.19191 3.26529 3.30366 3.28321 3.39606 3.27845 3.29586 3.39407 3.30847 3.41994 3.29354 3.25109 3.26544 3.38588 3.345 3.4174 3.2633 3.36613 3.1425 3.28029
9.3 3.20468 3.03178 3.02816 3.00056 3.00387 3.07891 2.99691 3.06768 3.00071 2.96556 3.01108 3.04694 3.04914 2.96977 2.95502 3.04884 3.01971 3.06055 3.01136 2.97642 3.00385 2.98947 2.97795 3.0196 3.06819 2.99739 2.98534 3.0718 2.97353 3.00476
10.6 2.31374 2.22157 2.1944 2.23412 2.1983 2.2462 2.19607 2.23893 2.21307 2.16129 2.18085 2.20858 2.21435 2.20561 2.19092 2.2051 2.21049 2.23427 2.19684 2.20296 2.17804 2.18851 2.21014 2.20822 2.23968 2.24267 2.20586 2.21855 2.16691 2.22858
11.9 2.06288 1.97873 1.98173 1.96887 1.96944 2.01208 1.98938 1.95915 1.97977 1.93109 1.96985 1.9856 1.95487 1.93587 1.91858 1.97313 1.96579 1.9902 1.96554 1.97618 1.94503 1.99422 1.94407 2.00124 2.00344 1.98785 1.98386 1.97836 1.91802 1.97047
13.2 1.776 1.7267 1.69648 1.71161 1.6912 1.74461 1.71398 1.71221 1.70069 1.68441 1.68506 1.67336 1.7071 1.67947 1.70251 1.71538 1.70244 1.72295 1.70174 1.69316 1.68204 1.68371 1.6746 1.71357 1.68817 1.6877 1.70896 1.71411 1.64662 1.73057
14.5 1.6105 1.52199 1.50775 1.54218 1.52307 1.55691 1.53565 1.52085 1.54391 1.5144 1.51741 1.54029 1.5247 1.52124 1.53677 1.54088 1.51935 1.53997 1.50678 1.5383 1.49469 1.53385 1.49453 1.52809 1.5432 1.51354 1.51242 1.55849 1.48401 1.5263
15.8 1.42085 1.3691 1.36645 1.40117 1.37262 1.40162 1.3769 1.36958 1.37899 1.36497 1.34297 1.3496 1.36338 1.32769 1.36169 1.3859 1.37119 1.35708 1.38863 1.36236 1.35204 1.36653 1.36187 1.39067 1.37378 1.36078 1.34657 1.3648 1.33889 1.35629
17.1 1.27881 1.24508 1.23219 1.2659 1.22851 1.25553 1.24563 1.24816 1.2196 1.22835 1.21682 1.21615 1.21994 1.2302 1.22634 1.24692 1.248 1.24905 1.2323 1.24241 1.21549 1.22609 1.23639 1.23936 1.25378 1.23522 1.2182 1.26405 1.22022 1.21541
18.4 1.25073 1.21164 1.19021 1.21953 1.21043 1.21201 1.21585 1.20836 1.21799 1.18223 1.19532 1.18853 1.20992 1.20333 1.20972 1.20526 1.20217 1.23248 1.21442 1.20131 1.18631 1.19872 1.21004 1.21011 1.22587 1.20192 1.19242 1.2211 1.2096 1.18203
19.7 1.22036 1.19756 1.172 1.1919 1.16203 1.19991 1.1726 1.18203 1.17659 1.16202 1.1667 1.1794 1.17115 1.18595 1.16308 1.17596 1.17695 1.19754 1.16669 1.16761 1.15818 1.16787 1.19088 1.17289 1.20291 1.1808 1.16868 1.18701 1.19046 1.17479
21 1.21664 1.14894 1.15309 1.16658 1.16156 1.18442 1.1629 1.16717 1.1502 1.13847 1.16811 1.13892 1.16055 1.16265 1.16685 1.15812 1.14703 1.18745 1.15598 1.17118 1.1379 1.14533 1.15529 1.17558 1.17487 1.17472 1.13756 1.16872 1.15463 1.15784
22.3 1.17995 1.15894 1.14122 1.16582 1.14034 1.16853 1.15299 1.1721 1.16002 1.13081 1.14579 1.14365 1.15517 1.16512 1.15944 1.16597 1.15966 1.16406 1.14446 1.15476 1.14494 1.1404 1.18239 1.15808 1.16857 1.16398 1.14079 1.15506 1.14687 1.14342
23.6 1.21684 1.15254 1.13566 1.15865 1.15281 1.16817 1.15134 1.1597 1.15431 1.12957 1.16278 1.14863 1.13922 1.16657 1.14475 1.16141 1.15024 1.16768 1.13065 1.14438 1.14412 1.14997 1.15911 1.16239 1.1761 1.16502 1.14639 1.16597 1.15749 1.15501
24.9 1.18018 1.13014 1.13163 1.1349 1.12468 1.15029 1.12173 1.13078 1.1255 1.10249 1.14785 1.1281 1.1354 1.15045 1.1272 1.11821 1.14773 1.15016 1.11902 1.13125 1.11752 1.12284 1.13934 1.13259 1.14672 1.12536 1.12957 1.13224 1.13344 1.128
26.2 1.15114 1.128 1.12324 1.11569 1.09917 1.13134 1.12749 1.13625 1.12067 1.10621 1.11157 1.11934 1.10547 1.10677 1.12307 1.12919 1.12047 1.12133 1.12914 1.12724 1.10945 1.1317 1.11599 1.12008 1.13334 1.1066 1.11542 1.13686 1.12753 1.1039
27.5 1.11704 1.08794 1.08076 1.09938 1.08241 1.09 1.08546 1.09352 1.06021 1.08117 1.08298 1.08122 1.08297 1.083 1.07676 1.07515 1.09113 1.09446 1.07263 1.08058 1.07862 1.09936 1.09333 1.08109 1.09595 1.06882 1.08366 1.08531 1.08892 1.06402
28.8 1.0681 1.02723 1.03073 1.02969 1.03881 1.05339 1.04563 1.05213 1.00568 1.03542 1.03756 1.03661 1.03885 1.02339 1.03843 1.0314 1.04624 1.04338 1.02822 1.0218 1.02432 1.03547 1.03527 1.03451 1.03218 1.02113 1.04154 1.03585 1.0315 1.03464
30.1 0.986737 0.979379 0.970297 0.981821 0.970432 0.995354 0.961626 0.980862 0.980635 0.960087 0.984785 0.96541 0.970865 0.976858 0.967186 0.978389 0.974289 0.991308 0.972021 0.990333 0.956213 0.964229 0.982785 0.963233 0.986931 0.965786 0.96206 0.977557 0.962705 0.963944
31.4 0.931869 0.92528 0.910819 0.91012 0.924788 0.912743 0.91203 0.910286 0.897445 0.896964 0.917942 0.911459 0.909816 0.915586 0.905663 0.91593 0.911509 0.915174 0.898282 0.918459 0.907948 0.904416 0.908854 0.910434 0.92042 0.902126 0.912511 0.924566 0.906608 0.894362
32.7 0.852073 0.837518 0.837303 0.841602 0.834712 0.833115 0.840773 0.844626 0.836738 0.837595 0.837602 0.8405 0.833836 0.829136 0.827995 0.839725 0.83627 0.846931 0.839912 0.844225 0.826448 0.840813 0.838213 0.84006 0.842487 0.841869 0.841129 0.834739 0.831827 0.836567
34 0.796438 0.776254 0.782401 0.78852 0.780605 0.776778 0.783526 0.784587 0.780549 0.781206 0.785026 0.785194 0.777348 0.783965 0.779493 0.785262 0.781753 0.786522 0.780551 0.785424 0.775904 0.78441 0.789683 0.780435 0.78682 0.776219 0.783971 0.78399 0.777645 0.774997
35.3 0.744742 0.733986 0.73625 0.733288 0.731917 0.729184 0.731584 0.728205 0.732579 0.728786 0.734159 0.736694 0.734382 0.734465 0.725858 0.730087 0.726673 0.731407 0.730874 0.738199 0.730773 0.735244 0.732923 0.731676 0.731228 0.727969 0.728515 0.726503 0.725514 0.732618
36.6 0.685359 0.673114 0.67319 0.682349 0.671178 0.671559 0.672689 0.685721 0.675277 0.672868 0.680014 0.680336 0.677645 0.674177 0.669335 0.680246 0.670855 0.679598 0.672205 0.678884 0.672037 0.67646 0.675634 0.675611 0.679718 0.671505 0.675673 0.669121 0.675186 0.672282
37.9 0.629724 0.619633 0.619387 0.618672 0.613845 0.617591 0.620668 0.623188 0.619396 0.615918 0.625349 0.621474 0.620711 0.621569 0.614988 0.621918 0.619589 0.624735 0.622221 0.62475 0.61301 0.618097 0.622572 0.622301 0.626017 0.617112 0.62436 0.618277 0.615638 0.619174
39.2 0.575026 0.564563 0.566205 0.572161 0.568484 0.568307 0.574615 0.573058 0.57075 0.563349 0.569679 0.573411 0.569867 0.56911 0.565763 0.565859 0.566665 0.568515 0.569342 0.57237 0.566436 0.567117 0.56593 0.573068 0.57109 0.567581 0.571446 0.568707 0.56356 0.573263
40.5 0.500936 0.493206 0.498982 0.497633 0.493604 0.495133 0.491774 0.494657 0.493861 0.49705 0.495023 0.494822 0.494888 0.496101 0.501127 0.493199 0.494902 0.496226 0.494548 0.494213 0.496405 0.492931 0.494413 0.492837 0.496685 0.492969 0.494661 0.491098 0.4926 0.490366
41.8 0.42917 0.420675 0.422361 0.424033 0.419295 0.420116 0.423293 0.423927 0.428367 0.423095 0.41925 0.420202 0.422207 0.423913 0.420031 0.425669 0.41911 0.421205 0.424395 0.424027 0.418019 0.422418 0.429826 0.419493 0.419626 0.426889 0.419938 0.426482 0.420917 0.420266
43.1 0.361353 0.355704 0.356512 0.35949 0.356832 0.358031 0.358285 0.352507 0.353761 0.355715 0.35395 0.362467 0.356161 0.366158 0.356778 0.359653 0.359117 0.355813 0.358981 0.359379 0.358509 0.361798 0.357612 0.3583 0.359978 0.357469 0.355774 0.36176 0.356152 0.355212
44.4 0.302037 0.293246 0.296881 0.299472 0.293207 0.296073 0.296339 0.301167 0.299306 0.292624 0.295121 0.301712 0.297114 0.295682 0.298982 0.301212 0.298544 0.290408 0.299791 0.301141 0.296274 0.297637 0.298867 0.296672 0.300186 0.300297 0.295976 0.296108 0.294759 0.296415
45.7 0.242937 0.239931 0.239742 0.242704 0.239418 0.23926 0.243042 0.23953 0.237949 0.239935 0.241618 0.240524 0.238823 0.242755 0.242359 0.24072 0.239973 0.240288 0.240886 0.235917 0.243295 0.240239 0.24096 0.239729 0.242141 0.241717 0.239968 0.238448 0.241058 0.238039
47 0.181228 0.184447 0.181931 0.185014 0.183558 0.183571 0.184151 0.182256 0.180121 0.182879 0.185288 0.18457 0.187066 0.181605 0.186981 0.18323 0.182475 0.186583 0.182632 0.183556 0.18179 0.185831 0.187923 0.183874 0.183466 0.186134 0.184456 0.182998 0.180859 0.181669
48.3 0.129807 0.127723 0.131553 0.130349 0.129181 0.124555 0.129577 0.12898 0.126291 0.129296 0.131339 0.129101 0.129227 0.130094 0.132619 0.129087 0.130524 0.129349 0.127829 0.127773 0.128688 0.129616 0.132237 0.126823 0.129067 0.130087 0.132381 0.128295 0.126546 0.129327
48.7 0.109825 0.111897 0.117182 0.112092 0.114275 0.110435 0.112631 0.113787 0.112209 0.116399 0.114145 0.112618 0.111538 0.11026 0.115805 0.115662 0.115195 0.114649 0.111553 0.111423 0.112612 0.111107 0.112738 0.112664 0.1141 0.110646 0.1092 0.113294 0.114205 0.110968