File: iso_XRD_list.txt
# [0.0, 772.0, 1545.0, 2318.0, 3090.0, 3861.0, 4633.0, 5405.0, 6178.0, 6951.0, 7722.0, 8494.0, 9266.0, 10039.0, 10812.0, 11583.0, 12355.0, 13127.0, 13900.0, 14673.0, 15445.0, 16216.0, 16989.0, 17762.0, 18534.0, 19306.0, 20077.0, 20850.0, 21622.0, 22396.0]
1.5 2.38953 2.4716 2.52668 2.69969 2.55317 2.57115 2.59816 2.51112 2.53099 2.52046 2.53656 2.50272 2.52057 2.5075 2.43848 2.52465 2.6024 2.55637 2.60219 2.47722 2.4116 2.61826 2.53895 2.60666 2.59489 2.50416 2.61864 2.71855 2.59654 2.59147
2.8 7.49714 6.71779 6.81811 7.11263 6.82499 7.1132 6.77639 6.88605 6.70411 7.05263 6.69221 6.70877 6.49897 6.81634 6.85509 6.80513 6.8923 6.74185 6.95193 6.71595 6.76453 6.70748 6.54096 6.62755 6.6675 6.76734 6.73984 6.70794 6.76751 6.79569
4.1 9.30972 8.42564 8.63657 8.7294 8.48385 8.6174 8.55186 8.5828 8.48839 8.59442 8.48517 8.36547 8.42588 8.40946 8.79825 8.55913 8.75941 8.66378 8.63589 8.4917 8.56104 8.44207 8.70372 8.64799 8.47062 8.56676 8.45779 8.70672 8.66649 8.80652
5.4 6.49351 5.86179 5.87049 5.9096 5.86443 5.94472 5.7396 5.95797 5.78802 5.83533 5.89501 5.70947 5.90439 5.84885 5.75813 5.80267 5.86096 5.73152 5.97181 5.85867 5.76809 5.74744 5.90214 5.9682 5.89178 5.82421 5.68407 5.83645 5.92964 5.9203
6.7 3.80997 3.45105 3.50527 3.50676 3.43996 3.40937 3.38434 3.59037 3.40515 3.50984 3.41533 3.38513 3.43241 3.43597 3.44066 3.46871 3.56061 3.41227 3.53038 3.48638 3.41002 3.37271 3.5244 3.55535 3.47511 3.4979 3.46025 3.46738 3.51944 3.50768
8 3.70776 3.38438 3.28033 3.49572 3.32588 3.45549 3.3196 3.33523 3.25501 3.30484 3.29694 3.18706 3.36666 3.42883 3.35317 3.40116 3.35263 3.33008 3.38107 3.38105 3.37205 3.32137 3.3543 3.3684 3.36208 3.34734 3.3104 3.37484 3.43403 3.38237
9.3 3.34757 3.04835 3.05994 3.04236 2.98568 3.0169 3.03682 3.097 3.01836 3.00571 3.00664 3.019 3.00194 3.02809 3.05464 3.03943 3.09542 3.05535 3.06641 3.03487 3.01586 2.96835 3.10326 3.02594 3.06 3.07108 2.96974 3.02699 3.03157 3.06656
10.6 2.45606 2.23526 2.27317 2.25326 2.22334 2.26478 2.25584 2.26574 2.22806 2.22671 2.20658 2.25057 2.21002 2.24238 2.26358 2.24271 2.28351 2.22983 2.24759 2.23587 2.18819 2.21117 2.28953 2.25062 2.26527 2.23001 2.19978 2.21659 2.2158 2.25368
11.9 2.15265 1.97594 2.01466 1.99912 1.96546 2.02845 1.99304 2.00897 1.99472 1.99314 2.00082 1.96572 1.98924 2.00038 1.9756 1.9938 2.02236 2.00386 1.99269 1.99141 1.98006 1.98238 1.99291 2.00004 2.01844 2.02834 1.95358 2.0007 1.967 2.02148
13.2 1.87731 1.72234 1.74394 1.74593 1.73724 1.76658 1.72516 1.75452 1.74309 1.75437 1.73235 1.71748 1.73385 1.74851 1.75623 1.74042 1.76772 1.71589 1.74202 1.73459 1.72022 1.7085 1.75909 1.73928 1.7253 1.74396 1.71763 1.7621 1.70678 1.72723
14.5 1.71066 1.55018 1.54878 1.55465 1.52738 1.55506 1.55545 1.57776 1.56651 1.57668 1.56517 1.54628 1.52222 1.54305 1.54644 1.546 1.55831 1.52672 1.55014 1.55726 1.53492 1.52634 1.55071 1.56716 1.55576 1.58484 1.51535 1.56079 1.55799 1.5637
15.8 1.50503 1.38379 1.39918 1.40297 1.385 1.39096 1.40519 1.3921 1.37768 1.40766 1.37564 1.38686 1.37545 1.39519 1.38205 1.3549 1.39951 1.36864 1.41753 1.38239 1.36224 1.34743 1.38669 1.37016 1.39539 1.3964 1.37908 1.39571 1.36979 1.39261
17.1 1.34397 1.2717 1.26614 1.27131 1.26423 1.26781 1.277 1.269 1.25991 1.26628 1.21979 1.27467 1.24141 1.23669 1.27204 1.24117 1.2869 1.25204 1.26362 1.24723 1.25951 1.2337 1.26194 1.26046 1.24955 1.24478 1.24225 1.26118 1.23954 1.24737
18.4 1.30421 1.25912 1.2359 1.24138 1.23709 1.21427 1.21303 1.23733 1.22489 1.25051 1.23086 1.19998 1.21063 1.23574 1.21808 1.24015 1.24141 1.2264 1.21597 1.21601 1.22606 1.20866 1.22551 1.21378 1.217 1.22435 1.23302 1.21558 1.21468 1.20326
19.7 1.26955 1.18761 1.20254 1.1868 1.18828 1.20277 1.18471 1.19748 1.21454 1.2071 1.18297 1.21095 1.18499 1.19999 1.20465 1.17667 1.20553 1.20601 1.19225 1.20158 1.20442 1.17829 1.19471 1.1949 1.19076 1.18144 1.19309 1.18371 1.16802 1.18831
21 1.22652 1.15487 1.15848 1.17115 1.15262 1.16796 1.17276 1.15155 1.15694 1.16096 1.13822 1.14566 1.15567 1.15862 1.14997 1.15285 1.18387 1.17176 1.16177 1.1518 1.17094 1.13629 1.18079 1.17504 1.16729 1.1615 1.15321 1.16655 1.14432 1.15514
22.3 1.21176 1.14454 1.11864 1.13433 1.13551 1.1356 1.14645 1.13242 1.1392 1.13689 1.11945 1.12633 1.12696 1.14192 1.12842 1.13185 1.15839 1.12954 1.12398 1.13011 1.13629 1.10835 1.13672 1.1525 1.12445 1.12336 1.13869 1.11017 1.11592 1.12739
23.6 1.17593 1.11888 1.10623 1.117 1.12463 1.10469 1.12234 1.11522 1.12906 1.11538 1.09374 1.10498 1.09421 1.11433 1.10804 1.11356 1.11574 1.10487 1.11161 1.12354 1.11073 1.10941 1.1181 1.11318 1.11754 1.10135 1.09274 1.09364 1.08508 1.10618
24.9 1.14301 1.09545 1.09401 1.08405 1.09689 1.10042 1.08927 1.10215 1.09962 1.09138 1.09747 1.08489 1.09026 1.10294 1.08104 1.06422 1.0983 1.08584 1.08663 1.08055 1.09608 1.05968 1.08575 1.09209 1.09866 1.08417 1.07796 1.09271 1.07529 1.08805
26.2 1.14803 1.07852 1.0738 1.07756 1.07655 1.07382 1.06261 1.08419 1.09038 1.08018 1.06222 1.0614 1.06644 1.08521 1.08405 1.08028 1.07768 1.07506 1.07713 1.08247 1.09045 1.07235 1.07754 1.07622 1.09176 1.07833 1.07002 1.08335 1.0633 1.07355
27.5 1.09095 1.06554 1.05282 1.04941 1.04857 1.05765 1.04158 1.05272 1.05556 1.04112 1.04869 1.05156 1.04814 1.04861 1.03939 1.04533 1.05776 1.04806 1.06001 1.03596 1.05255 1.05278 1.04386 1.04823 1.05366 1.06081 1.04806 1.04341 1.04263 1.05446
28.8 1.0367 1.00603 1.00182 0.997407 0.992665 0.98992 0.99157 1.00593 1.01164 1.00128 0.997954 1.00164 0.982766 1.00434 1.0102 0.994597 1.00083 0.996978 0.995553 1.00158 0.996026 0.980704 0.997251 1.00364 0.982373 0.98906 1.00154 1.00136 0.982039 0.994729
30.1 0.965584 0.948919 0.946848 0.943209 0.941894 0.941414 0.938534 0.951426 0.957438 0.944766 0.940456 0.932429 0.943428 0.952382 0.943234 0.949658 0.943464 0.94439 0.944428 0.931087 0.946226 0.945978 0.939225 0.953453 0.945349 0.935341 0.944261 0.941797 0.931908 0.943824
31.4 0.909449 0.886173 0.888112 0.889396 0.879982 0.880023 0.87157 0.885896 0.891317 0.876335 0.859761 0.86693 0.873848 0.880222 0.881014 0.88328 0.883541 0.872049 0.891846 0.855745 0.876132 0.873475 0.87584 0.884963 0.86564 0.875409 0.881118 0.865843 0.870931 0.872716
32.7 0.83479 0.805043 0.812164 0.810144 0.793611 0.807507 0.797147 0.798609 0.807164 0.804913 0.79371 0.799004 0.798695 0.797307 0.804583 0.80329 0.803993 0.80231 0.806103 0.805747 0.804022 0.80648 0.803577 0.807968 0.809448 0.801081 0.809814 0.803869 0.794345 0.801963
34 0.774908 0.759519 0.752428 0.751456 0.746351 0.751145 0.749721 0.754089 0.7534 0.751351 0.746918 0.74934 0.757537 0.752609 0.752482 0.749513 0.754339 0.750633 0.749654 0.750807 0.753804 0.752653 0.746537 0.750947 0.749301 0.75197 0.752629 0.745643 0.742944 0.744957
35.3 0.710821 0.711569 0.694854 0.697513 0.697868 0.695701 0.694981 0.699975 0.70159 0.697993 0.697775 0.69891 0.697902 0.697574 0.695288 0.700323 0.706465 0.696568 0.701119 0.695743 0.692113 0.698716 0.697879 0.702868 0.701184 0.694969 0.699582 0.700532 0.692573 0.699539
36.6 0.651664 0.646994 0.647757 0.646754 0.638013 0.635927 0.639709 0.645073 0.640547 0.644781 0.637912 0.638528 0.647025 0.639188 0.647914 0.642405 0.645381 0.640407 0.632465 0.644408 0.640595 0.638256 0.638642 0.647582 0.646607 0.643757 0.635965 0.64065 0.634925 0.634788
37.9 0.595321 0.587777 0.584384 0.582422 0.577308 0.583108 0.577579 0.581012 0.584685 0.591566 0.585398 0.587957 0.591124 0.58755 0.586218 0.588979 0.58935 0.586142 0.584427 0.580547 0.586304 0.585613 0.582923 0.589175 0.587323 0.587242 0.584408 0.578289 0.588862 0.579343
39.2 0.541378 0.538395 0.538729 0.531388 0.540176 0.533174 0.537857 0.541123 0.538081 0.538641 0.530938 0.535479 0.534384 0.537432 0.538234 0.540502 0.537208 0.533982 0.535765 0.531321 0.535808 0.528773 0.53436 0.538136 0.534049 0.539255 0.532935 0.538859 0.530734 0.532788
40.5 0.474175 0.459311 0.465198 0.46365 0.458585 0.463053 0.46408 0.466563 0.458724 0.464782 0.464547 0.462471 0.460354 0.461594 0.463701 0.461857 0.464998 0.460011 0.462784 0.465213 0.467073 0.461928 0.462144 0.461659 0.467359 0.459643 0.46133 0.459863 0.460781 0.464748
41.8 0.398477 0.39589 0.394801 0.390319 0.3978 0.392247 0.39078 0.393011 0.392714 0.391103 0.391901 0.389942 0.392168 0.391858 0.392816 0.396101 0.396339 0.392952 0.387817 0.393902 0.395257 0.392435 0.397263 0.395738 0.395679 0.389247 0.39467 0.392052 0.384946 0.38995
43.1 0.330031 0.329749 0.327819 0.331565 0.322005 0.32586 0.32273 0.325565 0.323523 0.321954 0.326016 0.328847 0.331667 0.330346 0.325416 0.3236 0.326824 0.325887 0.319338 0.326723 0.326058 0.325435 0.32954 0.330292 0.322071 0.327478 0.328143 0.32613 0.325774 0.327744
44.4 0.268233 0.265372 0.266121 0.266107 0.267902 0.263935 0.271352 0.268993 0.268047 0.268317 0.267674 0.271294 0.269806 0.264838 0.269968 0.267038 0.268508 0.26765 0.264128 0.266572 0.270338 0.266646 0.266022 0.270237 0.266983 0.26975 0.268976 0.268338 0.265813 0.26643
45.7 0.212089 0.20788 0.206379 0.2097 0.212794 0.206496 0.208597 0.210742 0.208565 0.205442 0.205825 0.210874 0.208435 0.20989 0.209907 0.207442 0.21066 0.208575 0.209882 0.209248 0.212563 0.208154 0.208599 0.212031 0.208226 0.206924 0.211081 0.205029 0.2074 0.209635
47 0.154853 0.153306 0.152799 0.155394 0.156619 0.153313 0.155837 0.153212 0.155522 0.154259 0.153577 0.156471 0.156887 0.157362 0.152087 0.152113 0.152243 0.151064 0.152455 0.157643 0.15032 0.156071 0.155803 0.150364 0.151689 0.152532 0.15135 0.151606 0.15324 0.153991
48.3 0.101474 0.09639975 0.100441 0.101806 0.100697 0.09911391 0.09491848 0.09956904 0.09893488 0.100231 0.09715000 0.09959559 0.09838352 0.09788542 0.09875762 0.09915833 0.09875402 0.09939928 0.100534 0.09807978 0.09415944 0.09843575 0.101179 0.09767898 0.09958071 0.10265 0.100426 0.09652577 0.100843 0.09784230
48.7 0.08392089 0.08264160 0.08486739 0.08320781 0.08099606 0.08529213 0.08435697 0.08237964 0.08140917 0.08253837 0.07958911 0.08441110 0.08371652 0.08328977 0.08410559 0.08153776 0.08330782 0.08144245 0.08332517 0.08143481 0.08144005 0.08079445 0.08545972 0.08145765 0.08492113 0.07765046 0.08145390 0.08167418 0.08129279 0.08011257